Machine Module,SSA3032X-R,3.2.2.6.0R7
Y Axis Scale,LOG
Y Axis Unit,dBm
Impedance,50
Number of Points,751
PreAmp State,OFF
Ref Level,-2.000000000E+01
Attenuation,0.000000,Manual
Sweep Time,49442231.075697,Auto
Start Frequency,+0.000000000E+00
Stop Frequency,+4.944223108E+07
Average Type,Log Pwr
RBW,100000.000000,Manual
VBW,10.000000,Manual
Sweep Type,Continuous
Sweep Mode,Speed
Sweep Rule,Auto
Trigger Source,Free Run
Trigger Level,+0.000000000E+00
Trigger Edge,Rise
Marker,1,2,3,4,5,6,7,8
Marker Type,Normal,Off,Off,Off,Off,Off,Off,Off
Marker on Trace,A,,,,,,,
Marker Read Out,Frequency,,,,,,,
Marker X Axis,49000000.00000000,,,,,,,
Marker Ampt,-68.71984005,,,,,,,
Trace Math,OFF
Trace Variable X,Trace A
Trace Variable Y,Trace B
Trace Variable Z,Trace C
Trace Name,Trace A
Trace Type,Clear Write
Trace Detector,Sample
Trace Data
0,-12.62
65923,-23.50
131846,-47.27
197769,-60.05
263692,-60.34
329615,-61.47
395538,-62.91
461461,-64.90
527384,-64.13
593307,-63.49
659230,-62.08
725153,-61.42
791076,-54.84
856999,-28.26
922922,-14.81
988845,-12.78
1054768,-21.69
1120691,-43.19
1186614,-61.22
1252537,-61.47
1318459,-62.97
1384382,-65.66
1450305,-66.80
1516228,-69.02
1582151,-69.71
1648074,-70.47
1713997,-71.21
1779920,-71.76
1845843,-72.75
1911766,-71.30
1977689,-72.24
2043612,-71.00
2109535,-71.47
2175458,-72.69
2241381,-69.73
2307304,-71.87
2373227,-67.09
2439150,-64.95
2505073,-66.43
2570996,-67.10
2636919,-68.13
2702842,-65.12
2768765,-68.17
2834688,-46.45
2900611,-28.42
2966534,-22.91
3032457,-28.11
3098380,-44.98
3164303,-66.05
3230226,-67.28
3296149,-67.90
3362072,-66.28
3427995,-70.24
3493918,-67.47
3559841,-70.60
3625764,-67.36
3691687,-67.98
3757610,-69.17
3823533,-63.27
3889456,-65.89
3955378,-66.00
4021301,-68.35
4087224,-70.25
4153147,-66.76
4219070,-67.79
4284993,-65.90
4350916,-65.86
4416839,-66.55
4482762,-66.24
4548685,-66.50
4614608,-65.80
4680531,-66.83
4746454,-66.05
4812377,-61.02
4878300,-38.94
4944223,-29.45
5010146,-31.01
5076069,-43.87
5141992,-66.14
5207915,-67.11
5273838,-66.16
5339761,-67.13
5405684,-67.30
5471607,-68.09
5537530,-69.22
5603453,-70.50
5669376,-71.82
5735299,-72.35
5801222,-74.73
5867145,-74.49
5933068,-73.47
5998991,-74.30
6064914,-74.26
6130837,-74.41
6196760,-73.58
6262683,-73.51
6328606,-72.95
6394529,-72.08
6460452,-73.07
6526375,-73.33
6592297,-73.91
6658220,-74.51
6724143,-75.17
6790066,-75.93
6855989,-53.23
6921912,-39.78
6987835,-37.73
7053758,-46.65
7119681,-68.13
7185604,-75.04
7251527,-75.20
7317450,-76.53
7383373,-76.42
7449296,-77.32
7515219,-78.14
7581142,-77.95
7647065,-79.15
7712988,-79.58
7778911,-79.98
7844834,-80.25
7910757,-79.03
7976680,-77.73
8042603,-80.37
8108526,-80.62
8174449,-81.04
8240372,-80.09
8306295,-80.84
8372218,-81.15
8438141,-83.36
8504064,-83.81
8569987,-83.89
8635910,-84.61
8701833,-84.44
8767756,-84.31
8833679,-82.09
8899602,-66.52
8965525,-60.81
9031448,-66.12
9097371,-81.90
9163293,-82.87
9229216,-83.04
9295139,-83.37
9361062,-83.00
9426985,-83.51
9492908,-84.04
9558831,-83.62
9624754,-83.31
9690677,-84.17
9756600,-83.03
9822523,-84.09
9888446,-83.15
9954369,-81.32
10020292,-79.22
10086215,-78.89
10152138,-82.31
10218061,-83.57
10283984,-82.88
10349907,-84.59
10415830,-83.90
10481753,-83.87
10547676,-84.96
10613599,-85.08
10679522,-85.17
10745445,-84.45
10811368,-78.34
10877291,-56.48
10943214,-47.00
11009137,-48.51
11075060,-61.37
11140983,-84.26
11206906,-85.74
11272829,-86.75
11338752,-87.85
11404675,-88.42
11470598,-88.31
11536521,-88.10
11602444,-88.06
11668367,-88.03
11734290,-87.90
11800212,-87.72
11866135,-86.46
11932058,-78.83
11997981,-78.64
12063904,-86.66
12129827,-88.36
12195750,-89.16
12261673,-88.53
12327596,-88.32
12393519,-88.50
12459442,-87.80
12525365,-87.45
12591288,-87.46
12657211,-87.05
12723134,-87.17
12789057,-84.24
12854980,-59.01
12920903,-45.55
12986826,-43.51
13052749,-52.43
13118672,-73.90
13184595,-87.17
13250518,-86.69
13316441,-88.17
13382364,-86.62
13448287,-80.28
13514210,-76.34
13580133,-81.31
13646056,-87.89
13711979,-89.33
13777902,-89.00
13843825,-88.40
13909748,-77.59
13975671,-73.71
14041594,-80.89
14107517,-90.54
14173440,-90.47
14239363,-90.31
14305286,-90.48
14371208,-90.24
14437131,-90.77
14503054,-89.72
14568977,-89.95
14634900,-89.30
14700823,-89.03
14766746,-88.75
14832669,-66.89
14898592,-49.20
14964515,-43.54
15030438,-48.70
15096361,-65.78
15162284,-87.59
15228207,-88.04
15294130,-87.57
15360053,-88.65
15425976,-88.75
15491899,-89.85
15557822,-89.65
15623745,-89.23
15689668,-89.67
15755591,-89.07
15821514,-89.49
15887437,-80.49
15953360,-72.99
16019283,-76.36
16085206,-88.76
16151129,-91.08
16217052,-90.29
16282975,-91.18
16348898,-91.86
16414821,-92.16
16480744,-91.58
16546667,-91.52
16612590,-91.26
16678513,-90.48
16744436,-90.24
16810359,-76.81
16876282,-54.69
16942205,-45.23
17008127,-46.78
17074050,-59.66
17139973,-85.45
17205896,-90.50
17271819,-90.54
17337742,-91.14
17403665,-91.44
17469588,-90.37
17535511,-91.27
17601434,-90.88
17667357,-91.35
17733280,-90.18
17799203,-90.62
17865126,-84.49
17931049,-73.11
17996972,-72.78
18062895,-83.37
18128818,-90.95
18194741,-91.27
18260664,-91.19
18326587,-91.72
18392510,-91.88
18458433,-88.10
18524356,-88.61
18590279,-88.28
18656202,-88.13
18722125,-88.37
18788048,-86.33
18853971,-61.85
18919894,-48.37
18985817,-46.35
19051740,-55.27
19117663,-76.74
19183586,-89.93
19249509,-90.22
19315432,-90.80
19381355,-91.98
19447278,-91.50
19513201,-91.89
19579124,-92.25
19645046,-92.21
19710969,-93.27
19776892,-93.21
19842815,-89.54
19908738,-75.19
19974661,-71.00
20040584,-78.08
20106507,-86.91
20172430,-83.30
20238353,-88.70
20304276,-92.82
20370199,-92.80
20436122,-92.72
20502045,-92.32
20567968,-90.76
20633891,-91.04
20699814,-90.70
20765737,-90.66
20831660,-70.43
20897583,-52.74
20963506,-47.05
21029429,-52.22
21095352,-69.29
21161275,-91.56
21227198,-92.68
21293121,-92.70
21359044,-92.96
21424967,-93.19
21490890,-93.34
21556813,-93.57
21622736,-93.58
21688659,-93.48
21754582,-92.93
21820505,-92.81
21886428,-78.47
21952351,-70.88
22018274,-74.29
22084197,-88.66
22150120,-93.59
22216042,-93.96
22281965,-93.70
22347888,-93.30
22413811,-93.00
22479734,-92.86
22545657,-92.63
22611580,-92.52
22677503,-92.23
22743426,-91.85
22809349,-80.34
22875272,-58.23
22941195,-48.78
23007118,-50.32
23073041,-63.20
23138964,-88.46
23204887,-92.07
23270810,-91.71
23336733,-93.10
23402656,-93.08
23468579,-93.45
23534502,-94.04
23600425,-93.77
23666348,-93.40
23732271,-93.12
23798194,-93.55
23864117,-83.26
23930040,-71.79
23995963,-71.54
24061886,-82.37
24127809,-91.78
24193732,-92.42
24259655,-93.11
24325578,-92.21
24391501,-92.67
24457424,-92.06
24523347,-92.63
24589270,-92.31
24655193,-92.26
24721116,-91.58
24787039,-89.83
24852961,-65.76
24918884,-52.30
24984807,-50.26
25050730,-59.17
25116653,-80.58
25182576,-89.25
25248499,-88.71
25314422,-89.68
25380345,-90.81
25446268,-91.22
25512191,-91.05
25578114,-91.10
25644037,-91.59
25709960,-91.93
25775883,-92.38
25841806,-88.84
25907729,-74.45
25973652,-70.60
26039575,-77.62
26105498,-92.18
26171421,-93.62
26237344,-93.58
26303267,-93.35
26369190,-93.04
26435113,-92.82
26501036,-93.78
26566959,-93.82
26632882,-93.42
26698805,-93.08
26764728,-92.50
26830651,-74.67
26896574,-56.99
26962497,-51.32
27028420,-56.48
27094343,-73.55
27160266,-92.41
27226189,-92.85
27292112,-93.99
27358035,-93.63
27423958,-93.08
27489880,-93.53
27555803,-93.39
27621726,-93.61
27687649,-93.75
27753572,-93.51
27819495,-92.10
27885418,-78.21
27951341,-70.66
28017264,-74.07
28083187,-88.30
28149110,-92.67
28215033,-92.67
28280956,-92.35
28346879,-91.77
28412802,-91.90
28478725,-91.90
28544648,-91.40
28610571,-90.88
28676494,-90.28
28742417,-90.61
28808340,-84.97
28874263,-63.30
28940186,-53.85
29006109,-55.38
29072032,-68.25
29137955,-88.29
29203878,-88.89
29269801,-88.63
29335724,-88.87
29401647,-88.75
29467570,-87.85
29533493,-88.63
29599416,-87.85
29665339,-87.91
29731262,-88.22
29797185,-87.57
29863108,-84.86
29929031,-74.75
29994954,-74.63
30060876,-83.65
30126799,-87.83
30192722,-87.82
30258645,-84.02
30324568,-85.78
30390491,-87.46
30456414,-88.12
30522337,-87.86
30588260,-88.73
30654183,-88.26
30720106,-88.79
30786029,-88.30
30851952,-77.83
30917875,-64.51
30983798,-62.43
31049721,-71.30
31115644,-87.97
31181567,-89.01
31247490,-88.65
31313413,-88.75
31379336,-90.24
31445259,-90.65
31511182,-90.62
31577105,-90.96
31643028,-90.51
31708951,-90.06
31774874,-91.15
31840797,-86.33
31906720,-80.99
31972643,-77.23
32038566,-84.27
32104489,-91.34
32170412,-92.36
32236335,-92.55
32302258,-92.65
32368181,-92.42
32434104,-92.57
32500027,-93.01
32565950,-92.74
32631873,-93.57
32697795,-92.92
32763718,-93.43
32829641,-84.32
32895564,-66.72
32961487,-61.06
33027410,-66.20
33093333,-83.23
33159256,-94.07
33225179,-94.46
33291102,-94.46
33357025,-94.36
33422948,-94.47
33488871,-94.67
33554794,-88.66
33620717,-80.75
33686640,-84.36
33752563,-94.03
33818486,-94.76
33884409,-83.89
33950332,-76.49
34016255,-79.64
34082178,-93.02
34148101,-94.64
34214024,-94.92
34279947,-95.29
34345870,-95.32
34411793,-94.81
34477716,-95.64
34543639,-95.22
34609562,-95.00
34675485,-94.92
34741408,-94.90
34807331,-92.79
34873254,-73.17
34939177,-63.69
35005100,-65.22
35071023,-78.11
35136946,-94.26
35202869,-94.32
35268792,-90.60
35334714,-91.82
35400637,-93.11
35466560,-94.05
35532483,-94.53
35598406,-94.59
35664329,-94.47
35730252,-94.75
35796175,-94.52
35862098,-90.09
35928021,-79.10
35993944,-78.95
36059867,-89.27
36125790,-92.60
36191713,-93.24
36257636,-92.04
36323559,-90.61
36389482,-93.12
36455405,-92.83
36521328,-93.28
36587251,-94.00
36653174,-94.35
36719097,-92.98
36785020,-93.69
36850943,-82.75
36916866,-69.31
36982789,-67.29
37048712,-76.20
37114635,-92.53
37180558,-93.33
37246481,-91.93
37312404,-93.67
37378327,-93.11
37444250,-92.41
37510173,-90.75
37576096,-89.70
37642019,-89.89
37707942,-89.84
37773865,-88.24
37839788,-86.07
37905710,-83.54
37971633,-80.74
38037556,-85.80
38103479,-87.85
38169402,-89.50
38235325,-88.01
38301248,-87.99
38367171,-87.58
38433094,-88.87
38499017,-88.93
38564940,-88.78
38630863,-89.72
38696786,-89.23
38762709,-88.31
38828632,-88.94
38894555,-79.12
38960478,-73.49
39026401,-78.57
39092324,-90.04
39158247,-89.42
39224170,-89.37
39290093,-89.65
39356016,-89.57
39421939,-89.75
39487862,-90.00
39553785,-89.96
39619708,-89.85
39685631,-90.51
39751554,-91.14
39817477,-89.33
39883400,-89.75
39949323,-89.03
40015246,-89.29
40081169,-89.84
40147092,-90.81
40213015,-90.73
40278938,-77.49
40344861,-68.50
40410784,-70.51
40476707,-84.02
40542629,-91.96
40608552,-91.89
40674475,-92.60
40740398,-92.55
40806321,-92.43
40872244,-92.76
40938167,-91.90
41004090,-92.28
41070013,-93.04
41135936,-92.74
41201859,-92.22
41267782,-92.09
41333705,-91.93
41399628,-93.06
41465551,-92.06
41531474,-93.02
41597397,-94.22
41663320,-92.97
41729243,-93.96
41795166,-93.88
41861089,-94.01
41927012,-92.44
41992935,-92.46
42058858,-94.27
42124781,-94.26
42190704,-92.74
42256627,-91.87
42322550,-91.81
42388473,-93.74
42454396,-93.44
42520319,-91.98
42586242,-93.38
42652165,-92.97
42718088,-93.13
42784011,-92.88
42849934,-91.66
42915857,-81.48
42981780,-79.40
43047703,-87.97
43113625,-93.42
43179548,-94.88
43245471,-94.50
43311394,-94.67
43377317,-95.44
43443240,-94.76
43509163,-95.58
43575086,-95.56
43641009,-95.59
43706932,-94.58
43772855,-94.05
43838778,-94.95
43904701,-88.58
43970624,-85.03
44036547,-91.11
44102470,-95.74
44168393,-95.70
44234316,-95.08
44300239,-95.06
44366162,-95.03
44432085,-94.52
44498008,-95.05
44563931,-94.89
44629854,-95.80
44695777,-95.92
44761700,-95.40
44827623,-93.71
44893546,-78.59
44959469,-72.92
45025392,-78.03
45091315,-93.34
45157238,-95.55
45223161,-95.67
45289084,-95.00
45355007,-92.28
45420930,-90.10
45486853,-94.17
45552776,-95.58
45618699,-95.67
45684622,-95.50
45750544,-95.33
45816467,-95.80
45882390,-87.23
45948313,-79.75
46014236,-82.97
46080159,-94.67
46146082,-96.60
46212005,-96.46
46277928,-95.67
46343851,-95.53
46409774,-95.87
46475697,-96.14
46541620,-96.44
46607543,-95.83
46673466,-95.90
46739389,-95.77
46805312,-94.92
46871235,-80.05
46937158,-70.59
47003081,-72.11
47069004,-84.94
47134927,-92.12
47200850,-95.39
47266773,-95.79
47332696,-96.18
47398619,-96.24
47464542,-95.98
47530465,-96.14
47596388,-96.34
47662311,-96.30
47728234,-95.93
47794157,-95.73
47860080,-88.97
47926003,-77.76
47991926,-77.48
48057849,-88.20
48123772,-95.10
48189695,-94.61
48255618,-94.93
48321541,-94.96
48387463,-95.11
48453386,-94.71
48519309,-94.84
48585232,-95.13
48651155,-94.76
48717078,-94.86
48783001,-94.69
48848924,-84.40
48914847,-70.93
48980770,-68.72
49046693,-77.65
49112616,-93.18
49178539,-93.98
49244462,-93.67
49310385,-94.34
49376308,-93.84
49442231,-94.18
Trace Name,Trace B
Trace Type,Blank
Trace Name,Trace C
Trace Type,Blank
Trace Name,Trace D
Trace Type,Blank
